Wavelength,Absorbance
190,-0.86
190.5,-1.659
191,-2.591
191.5,-3.724
192,-4.85
192.5,-6.089
193,-7.391
193.5,-8.636
194,-9.538
194.5,-10.099
195,-10.336
195.5,-10.154
196,-9.542
196.5,-8.821
197,-7.926
197.5,-6.993
198,-5.922
198.5,-4.974
199,-3.912
199.5,-2.785
200,-1.738
200.5,-0.549
201,0.572
201.5,1.676
202,2.872
202.5,4.163
203,5.313
203.5,6.373
204,7.572
204.5,8.515
205,9.361
205.5,10.188
206,10.782
206.5,11.301
207,11.811
207.5,12.265
208,12.857
208.5,13.423
209,14.067
209.5,14.683
210,15.241
210.5,15.507
211,15.848
211.5,16.239
212,16.814
212.5,17.238
213,17.719
213.5,18.268
214,18.812
214.5,19.166
215,19.128
215.5,19.043
216,19.383
216.5,19.482
217,19.689
217.5,19.553
218,19.721
218.5,19.843
219,19.766
219.5,19.456
220,19.21
220.5,19.037
221,18.913
221.5,18.695
222,18.465
222.5,18.137
223,17.896
223.5,17.61
224,17.257
224.5,16.92
225,16.575
225.5,16.216
226,15.787
226.5,15.319
227,14.776
227.5,14.253
228,13.72
228.5,13.203
229,12.725
229.5,12.267
230,11.801
230.5,11.293
231,10.739
231.5,10.14
232,9.505
232.5,8.857
233,8.224
233.5,7.624
234,7.057
234.5,6.539
235,6.064
235.5,5.622
236,5.211
236.5,4.826
237,4.463
237.5,4.124
238,3.809
238.5,3.518
239,3.25
239.5,3.011
240,2.789
240.5,2.591
241,2.415
241.5,2.267
242,2.14
242.5,2.035
243,1.947
243.5,1.869
244,1.799
244.5,1.733
245,1.669
245.5,1.609
246,1.556
246.5,1.511
247,1.476
247.5,1.45
248,1.428
248.5,1.41
249,1.4
249.5,1.391
250,1.378
250.5,1.365
251,1.355
251.5,1.345
252,1.339
252.5,1.332
253,1.328
253.5,1.327
254,1.334
254.5,1.345
255,1.352
255.5,1.36
256,1.37
256.5,1.387
257,1.403
257.5,1.421
258,1.44
258.5,1.461
259,1.481
259.5,1.503
260,1.518
260.5,1.538
261,1.558
261.5,1.581
262,1.605
262.5,1.635
263,1.664
263.5,1.697
264,1.727
264.5,1.758
265,1.789
265.5,1.821
266,1.846
266.5,1.876
267,1.906
267.5,1.939
268,1.97
268.5,2.003
269,2.035
269.5,2.065
270,2.098
270.5,2.123
271,2.151
271.5,2.181
272,2.206
272.5,2.237
273,2.265
273.5,2.295
274,2.323
274.5,2.351
275,2.377
275.5,2.395
276,2.417
276.5,2.436
277,2.45
277.5,2.463
278,2.473
278.5,2.484
279,2.488
279.5,2.49
280,2.488
280.5,2.485
281,2.484
281.5,2.484
282,2.486
282.5,2.487
283,2.482
283.5,2.477
284,2.459
284.5,2.436
285,2.4
285.5,2.356
286,2.307
286.5,2.255
287,2.204
287.5,2.154
288,2.107
288.5,2.074
289,2.046
289.5,2.029
290,2.014
290.5,1.999
291,1.979
291.5,1.946
292,1.901
292.5,1.842
293,1.772
293.5,1.691
294,1.606
294.5,1.525
295,1.445
295.5,1.369
296,1.294
296.5,1.226
297,1.166
297.5,1.109
298,1.054
298.5,1.004
299,0.962
299.5,0.921
300,0.884
300.5,0.849
301,0.815
301.5,0.789
302,0.764
302.5,0.74
303,0.719
303.5,0.701
304,0.686
304.5,0.674
305,0.666
305.5,0.659
306,0.657
306.5,0.659
307,0.662
307.5,0.664
308,0.665
308.5,0.665
309,0.663
309.5,0.662
310,0.658
310.5,0.648
311,0.639
311.5,0.628
312,0.616
312.5,0.598
313,0.579
313.5,0.553
314,0.524
314.5,0.496
315,0.468
315.5,0.441
316,0.416
316.5,0.396
317,0.376
317.5,0.355
318,0.335
318.5,0.308
319,0.283
319.5,0.262
320,0.246
320.5,0.234
321,0.218
321.5,0.21
322,0.203
322.5,0.193
323,0.181
323.5,0.168
324,0.159
324.5,0.151
325,0.145
325.5,0.14
326,0.138
326.5,0.138
327,0.137
327.5,0.133
328,0.124
328.5,0.121
329,0.121
329.5,0.118
330,0.118
330.5,0.117
331,0.123
331.5,0.125
332,0.126
332.5,0.125
333,0.118
333.5,0.114
334,0.115
334.5,0.113
335,0.113
335.5,0.107
336,0.104
336.5,0.107
337,0.106
337.5,0.104
338,0.101
338.5,0.099
339,0.099
339.5,0.101
340,0.099
340.5,0.093
341,0.088
341.5,0.088
342,0.087
342.5,0.085
343,0.083
343.5,0.081
344,0.078
344.5,0.08
345,0.077
345.5,0.074
346,0.074
346.5,0.078
347,0.081
347.5,0.086
348,0.089
348.5,0.089
349,0.09
349.5,0.088
350,0.084
350.5,0.079
351,0.076
351.5,0.074
352,0.07
352.5,0.071
353,0.072
353.5,0.073
354,0.075
354.5,0.073
355,0.074
355.5,0.073
356,0.073
356.5,0.07
357,0.067
357.5,0.066
358,0.066
358.5,0.065
359,0.065
359.5,0.064
360,0.065
360.5,0.065
361,0.063
361.5,0.062
362,0.061
362.5,0.059
363,0.059
363.5,0.058
364,0.06
364.5,0.061
365,0.063
365.5,0.068
366,0.073
366.5,0.075
367,0.071
367.5,0.066
368,0.063
368.5,0.062
369,0.062
369.5,0.062
370,0.067
370.5,0.073
371,0.079
371.5,0.077
372,0.075
372.5,0.074
373,0.07
373.5,0.071
374,0.07
374.5,0.067
375,0.067
375.5,0.065
376,0.062
376.5,0.057
377,0.057
377.5,0.057
378,0.056
378.5,0.058
379,0.062
379.5,0.062
380,0.065
380.5,0.067
381,0.067
381.5,0.069
382,0.07
382.5,0.067
383,0.064
383.5,0.063
384,0.065
384.5,0.061
385,0.06
385.5,0.061
386,0.061
386.5,0.059
387,0.057
387.5,0.054
388,0.055
388.5,0.056
389,0.055
389.5,0.05
390,0.053
390.5,0.052
391,0.053
391.5,0.052
392,0.049
392.5,0.049
393,0.05
393.5,0.046
394,0.044
394.5,0.042
395,0.04
395.5,0.036
396,0.04
396.5,0.041
397,0.044
397.5,0.047
398,0.054
398.5,0.053
399,0.058
399.5,0.058
400,0.055
400.5,0.058
401,0.06
401.5,0.06
402,0.062
402.5,0.062
403,0.063
403.5,0.057
404,0.055
404.5,0.053
405,0.05
405.5,0.051
406,0.049
406.5,0.046
407,0.049
407.5,0.051
408,0.051
408.5,0.045
409,0.042
409.5,0.04
410,0.039
410.5,0.038
411,0.039
411.5,0.041
412,0.048
412.5,0.052
413,0.055
413.5,0.053
414,0.054
414.5,0.051
415,0.05
415.5,0.046
416,0.045
416.5,0.044
417,0.044
417.5,0.041
418,0.037
418.5,0.034
419,0.03
419.5,0.025
420,0.025
420.5,0.023
421,0.025
421.5,0.025
422,0.027
422.5,0.028
423,0.026
423.5,0.024
424,0.025
424.5,0.027
425,0.034
425.5,0.037
426,0.043
426.5,0.045
427,0.047
427.5,0.046
428,0.044
428.5,0.04
429,0.038
429.5,0.041
430,0.046
430.5,0.05
431,0.054
431.5,0.054
432,0.053
432.5,0.051
433,0.046
433.5,0.038
434,0.033
434.5,0.035
435,0.035
435.5,0.039
436,0.042
436.5,0.045
437,0.047
437.5,0.049
438,0.044
438.5,0.041
439,0.039
439.5,0.038
440,0.035
440.5,0.034
441,0.036
441.5,0.036
442,0.034
442.5,0.036
443,0.032
443.5,0.032
444,0.029
444.5,0.025
445,0.025
445.5,0.025
446,0.023
446.5,0.024
447,0.022
447.5,0.023
448,0.02
448.5,0.018
449,0.019
449.5,0.022
450,0.029
450.5,0.036
451,0.04
451.5,0.046
452,0.046
452.5,0.045
453,0.039
453.5,0.034
454,0.031
454.5,0.029
455,0.03
455.5,0.032
456,0.034
456.5,0.04
457,0.04
457.5,0.038
458,0.033
458.5,0.028
459,0.022
459.5,0.018
460,0.014
460.5,0.013
461,0.017
461.5,0.025
462,0.032
462.5,0.034
463,0.033
463.5,0.034
464,0.035
464.5,0.034
465,0.032
465.5,0.032
466,0.033
466.5,0.035
467,0.038
467.5,0.034
468,0.032
468.5,0.03
469,0.029
469.5,0.029
470,0.03
470.5,0.031
471,0.029
471.5,0.029
472,0.028
472.5,0.03
473,0.034
473.5,0.038
474,0.04
474.5,0.047
475,0.051
475.5,0.051
476,0.047
476.5,0.041
477,0.037
477.5,0.036
478,0.033
478.5,0.031
479,0.026
479.5,0.026
480,0.028
480.5,0.03
481,0.032
481.5,0.03
482,0.033
482.5,0.034
483,0.03
483.5,0.026
484,0.019
484.5,0.015
485,0.016
485.5,0.014
486,0.012
486.5,0.006
487,0.004
487.5,0.003
488,0.002
488.5,0.004
489,0.009
489.5,0.016
490,0.021
490.5,0.025
491,0.03
491.5,0.031
492,0.03
492.5,0.03
493,0.029
493.5,0.028
494,0.029
494.5,0.03
495,0.032
495.5,0.034
496,0.039
496.5,0.039
497,0.039
497.5,0.04
498,0.041
498.5,0.041
499,0.04
499.5,0.039
500,0.035
500.5,0.033
501,0.032
501.5,0.033
502,0.032
502.5,0.033
503,0.035
503.5,0.035
504,0.034
504.5,0.034
505,0.035
505.5,0.04
506,0.04
506.5,0.041
507,0.037
507.5,0.036
508,0.031
508.5,0.03
509,0.029
509.5,0.027
510,0.027
510.5,0.027
511,0.025
511.5,0.025
512,0.024
512.5,0.03
513,0.038
513.5,0.051
514,0.055
514.5,0.053
515,0.055
515.5,0.055
516,0.049
516.5,0.046
517,0.039
517.5,0.035
518,0.033
518.5,0.031
519,0.027
519.5,0.024
520,0.028
520.5,0.029
521,0.028
521.5,0.03
522,0.035
522.5,0.038
523,0.035
523.5,0.034
524,0.032
524.5,0.032
525,0.029
525.5,0.028
526,0.026
526.5,0.023
527,0.025
527.5,0.021
528,0.014
528.5,0.012
529,0.008
529.5,0.006
530,0.003
530.5,0.006
531,0.01
531.5,0.013
532,0.013
532.5,0.011
533,0.006
533.5,0.002
534,0.002
534.5,0.004
535,0.006
535.5,0.013
536,0.018
536.5,0.021
537,0.022
537.5,0.02
538,0.019
538.5,0.018
539,0.021
539.5,0.019
540,0.014
540.5,0.01
541,0.005
541.5,0
542,-0.002
542.5,-0.003
543,0
543.5,0.003
544,0.009
544.5,0.009
545,0.008
545.5,0.01
546,0.013
546.5,0.013
547,0.012
547.5,0.011
548,0.014
548.5,0.013
549,0.016
549.5,0.016
550,0.017
550.5,0.021
551,0.024
551.5,0.026
552,0.028
552.5,0.026
553,0.024
553.5,0.019
554,0.015
554.5,0.011
555,0.01
555.5,0.013
556,0.017
556.5,0.019
557,0.02
557.5,0.016
558,0.016
558.5,0.018
559,0.021
559.5,0.023
560,0.024
560.5,0.029
561,0.031
561.5,0.03
562,0.023
562.5,0.018
563,0.015
563.5,0.014
564,0.018
564.5,0.015
565,0.012
565.5,0.016
566,0.018
566.5,0.018
567,0.018
567.5,0.023
568,0.027
568.5,0.032
569,0.033
569.5,0.029
570,0.024
570.5,0.021
571,0.024
571.5,0.022
572,0.026
572.5,0.03
573,0.027
573.5,0.025
574,0.024
574.5,0.024
575,0.026
575.5,0.03
576,0.034
576.5,0.027
577,0.019
577.5,0.018
578,0.013
578.5,0.012
579,0.011
579.5,0.013
580,0.02
580.5,0.024
581,0.024
581.5,0.021
582,0.023
582.5,0.035
583,0.043
583.5,0.051
584,0.054
584.5,0.049
585,0.044
585.5,0.041
586,0.037
586.5,0.029
587,0.02
587.5,0.016
588,0.013
588.5,0.017
589,0.017
589.5,0.009
590,0.003
590.5,0.003
591,0.004
591.5,0.003
592,0.003
592.5,0.015
593,0.021
593.5,0.025
594,0.028
594.5,0.029
595,0.03
595.5,0.029
596,0.027
596.5,0.026
597,0.025
597.5,0.029
598,0.025
598.5,0.025
599,0.026
599.5,0.024
600,0.02
600.5,0.017
601,0.009
601.5,0.002
602,-0.001
602.5,0.006
603,0.012
603.5,0.019
604,0.02
604.5,0.012
605,0.008
605.5,0.006
606,-0.003
606.5,-0.01
607,-0.015
607.5,-0.013
608,-0.01
608.5,-0.011
609,-0.009
609.5,-0.01
610,-0.005
610.5,0.004
611,0.012
611.5,0.016
612,0.013
612.5,0.013
613,0.014
613.5,0.011
614,0.008
614.5,0.01
615,0.017
615.5,0.025
616,0.029
616.5,0.028
617,0.02
617.5,0.018
618,0.013
618.5,0.007
619,0.001
619.5,-0.001
620,-0.001
620.5,-0.002
621,-0.001
621.5,-0.004
622,-0.008
622.5,-0.007
623,-0.006
623.5,0.002
624,0.005
624.5,0.009
625,0.012
625.5,0.014
626,0.014
626.5,0.006
627,0
627.5,-0.002
628,0.001
628.5,0.003
629,0.008
629.5,0.01
630,0.013
630.5,0.013
631,0.013
631.5,0.013
632,0.013
632.5,0.015
633,0.016
633.5,0.011
634,0.009
634.5,0.001
635,0
635.5,0.004
636,0.008
636.5,0.008
637,0.011
637.5,0.012
638,0.009
638.5,0.007
639,0.002
639.5,-0.006
640,-0.013
640.5,-0.016
641,-0.021
641.5,-0.022
642,-0.012
642.5,-0.005
643,0.001
643.5,0.019
644,0.028
644.5,0.03
645,0.032
645.5,0.032
646,0.033
646.5,0.036
647,0.035
647.5,0.029
648,0.016
648.5,0.006
649,-0.001
649.5,-0.006
650,-0.007
650.5,-0.005
651,0.004
651.5,0.022
652,0.028
652.5,0.028
653,0.017
653.5,0.002
654,-0.005
654.5,-0.016
655,-0.025
655.5,-0.027
656,-0.027
656.5,-0.018
657,-0.015
657.5,-0.015
658,-0.015
658.5,-0.016
659,-0.014
659.5,-0.013
660,-0.009
660.5,-0.004
661,-0.002
661.5,-0.001
662,-0.002
662.5,-0.002
663,0.003
663.5,0.009
664,0.011
664.5,0.016
665,0.022
665.5,0.03
666,0.033
666.5,0.032
667,0.03
667.5,0.029
668,0.026
668.5,0.018
669,0.011
669.5,0.002
670,-0.003
670.5,-0.008
671,-0.013
671.5,-0.023
672,-0.03
672.5,-0.03
673,-0.027
673.5,-0.02
674,-0.015
674.5,-0.008
675,-0.001
675.5,0.004
676,0.002
676.5,-0.013
677,-0.02
677.5,-0.02
678,-0.018
678.5,-0.015
679,-0.015
679.5,-0.011
680,-0.007
680.5,-0.003
681,-0.004
681.5,-0.006
682,-0.009
682.5,-0.006
683,-0.005
683.5,0.002
684,0.009
684.5,0.012
685,0.013
685.5,0.014
686,0.008
686.5,0.002
687,-0.003
687.5,-0.008
688,-0.011
688.5,-0.012
689,-0.011
689.5,-0.015
690,-0.022
690.5,-0.024
691,-0.019
691.5,-0.013
692,-0.008
692.5,-0.007
693,-0.005
693.5,-0.002
694,0.007
694.5,0.009
695,0.012
695.5,0.015
696,0.016
696.5,0.012
697,0.006
697.5,-0.004
698,-0.018
698.5,-0.03
699,-0.035
699.5,-0.033
700,-0.026
700.5,-0.017
701,-0.011
701.5,-0.003
702,0.003
702.5,0.006
703,0.004
703.5,-0.001
704,-0.001
704.5,-0.002
705,0.003
705.5,0.003
706,-0.004
706.5,-0.014
707,-0.024
707.5,-0.032
708,-0.033
708.5,-0.034
709,-0.031
709.5,-0.03
710,-0.025
710.5,-0.026
711,-0.027
711.5,-0.033
712,-0.026
712.5,-0.021
713,-0.012
713.5,-0.001
714,0.008
714.5,0.012
715,0.01
715.5,0.005
716,-0.008
716.5,-0.021
717,-0.025
717.5,-0.036
718,-0.037
718.5,-0.026
719,-0.013
719.5,0
720,0.011
720.5,0.017
721,0.012
721.5,0.008
722,0.001
722.5,-0.01
723,-0.018
723.5,-0.024
724,-0.031
724.5,-0.034
725,-0.028
725.5,-0.021
726,-0.014
726.5,-0.004
727,0.004
727.5,0.009
728,0.01
728.5,0.004
729,-0.009
729.5,-0.017
730,-0.019
730.5,-0.029
731,-0.034
731.5,-0.034
732,-0.032
732.5,-0.027
733,-0.021
733.5,-0.024
734,-0.027
734.5,-0.032
735,-0.041
735.5,-0.047
736,-0.046
736.5,-0.042
737,-0.033
737.5,-0.027
738,-0.018
738.5,-0.017
739,-0.011
739.5,-0.016
740,-0.024
740.5,-0.031
741,-0.03
741.5,-0.024
742,-0.017
742.5,-0.02
743,-0.021
743.5,-0.027
744,-0.028
744.5,-0.032
745,-0.038
745.5,-0.034
746,-0.017
746.5,0
747,0.019
747.5,0.031
748,0.035
748.5,0.032
749,0.02
749.5,0.003
750,-0.014
750.5,-0.026
751,-0.037
751.5,-0.04
752,-0.029
752.5,-0.015
753,-0.008
753.5,0.001
754,0.003
754.5,0.004
755,0.004
755.5,-0.003
756,-0.004
756.5,-0.003
757,-0.002
757.5,-0.005
758,-0.014
758.5,-0.013
759,-0.01
759.5,-0.008
760,-0.011
760.5,-0.02
761,-0.019
761.5,-0.019
762,-0.018
762.5,-0.028
763,-0.04
763.5,-0.041
764,-0.042
764.5,-0.041
765,-0.044
765.5,-0.038
766,-0.025
766.5,-0.006
767,0.007
767.5,0.008
768,0.008
768.5,0.011
769,0.006
769.5,0.006
770,0.005
770.5,0.007
771,0.01
771.5,0.016
772,0.015
772.5,0.01
773,0.005
773.5,-0.001
774,-0.004
774.5,0.003
775,0.006
775.5,0.008
776,0.022
776.5,0.03
777,0.028
777.5,0.017
778,0.007
778.5,-0.005
779,-0.008
779.5,-0.011
780,-0.015
780.5,-0.026
781,-0.024
781.5,-0.028
782,-0.038
782.5,-0.04
783,-0.034
783.5,-0.031
784,-0.022
784.5,-0.011
785,-0.007
785.5,-0.008
786,-0.004
786.5,-0.011
787,-0.024
787.5,-0.026
788,-0.019
788.5,-0.019
789,-0.015
789.5,-0.012
790,-0.016
790.5,-0.016
791,-0.024
791.5,-0.03
792,-0.04
792.5,-0.043
793,-0.04
793.5,-0.034
794,-0.02
794.5,-0.016
795,-0.018
795.5,-0.002
796,0.011
796.5,0.035
797,0.034
797.5,0.024
798,0.008
798.5,-0.001
799,-0.016
799.5,-0.037
800,-0.048
800.5,-0.041
801,-0.038
801.5,-0.034
802,-0.036
802.5,-0.037
803,-0.041
803.5,-0.044
804,-0.052
804.5,-0.05
805,-0.042
805.5,-0.03
806,-0.019
806.5,-0.014
807,0.003
807.5,0.015
808,0.014
808.5,0
809,-0.011
809.5,-0.012
810,-0.014
810.5,-0.017
811,-0.022
811.5,-0.032
812,-0.035
812.5,-0.035
813,-0.032
813.5,-0.025
814,-0.013
814.5,0.001
815,0.014
815.5,0.018
816,0.012
816.5,0.005
817,0.003
817.5,0.002
818,-0.003
818.5,-0.013
819,-0.027
819.5,-0.038
820,-0.044
820.5,-0.054
821,-0.054
821.5,-0.049
822,-0.037
822.5,-0.031
823,-0.03
823.5,-0.028
824,-0.026
824.5,-0.025
825,-0.036
825.5,-0.049
826,-0.054
826.5,-0.062
827,-0.07
827.5,-0.071
828,-0.065
828.5,-0.058
829,-0.047
829.5,-0.029
830,-0.021
830.5,-0.007
831,-0.001
831.5,-0.007
832,-0.019
832.5,-0.029
833,-0.04
833.5,-0.047
834,-0.047
834.5,-0.034
835,-0.025
835.5,-0.014
836,-0.009
836.5,-0.016
837,-0.026
837.5,-0.039
838,-0.045
838.5,-0.039
839,-0.046
839.5,-0.056
840,-0.05
840.5,-0.041
841,-0.031
841.5,-0.019
842,-0.009
842.5,-0.002
843,0
843.5,0
844,-0.016
844.5,-0.021
845,-0.008
845.5,0.008
846,0.032
846.5,0.053
847,0.067
847.5,0.061
848,0.052
848.5,0.038
849,0.026
849.5,0.03
850,0.029
